% Frequency[Hz] Response[dB re 1V/\muPa] 
3949.8 -211.42
3965.1 -211.42
3980.5 -211.42
3995.9 -211.42
4011.4 -211.34
4027 -211.34
4042.6 -211.34
4058.2 -211.46
4073.9 -211.46
4089.7 -211.46
4105.6 -211.46
4121.5 -211.46
4137.4 -211.46
4153.5 -211.46
4169.6 -211.46
4185.7 -211.46
4201.9 -211.46
4218.2 -211.46
4234.5 -211.46
4250.9 -211.38
4267.4 -211.38
4284 -211.38
4300.5 -211.38
4317.2 -211.38
4333.9 -211.46
4350.7 -211.46
4367.6 -211.46
4384.5 -211.38
4401.5 -211.38
4418.5 -211.38
4435.7 -211.38
4452.8 -211.46
4470.1 -211.46
4487.4 -211.46
4504.8 -211.46
4522.2 -211.38
4539.8 -211.38
4557.4 -211.42
4575 -211.42
4592.7 -211.42
4610.5 -211.42
4628.4 -211.5
4646.3 -211.5
4664.3 -211.5
4682.4 -211.5
4700.5 -211.5
4718.7 -211.5
4737 -211.5
4755.4 -211.5
4773.8 -211.5
4792.3 -211.5
4810.9 -211.42
4829.5 -211.42
4848.2 -211.42
4867 -211.42
4885.8 -211.42
4904.8 -211.42
4923.8 -211.42
4942.8 -211.42
4962 -211.42
4981.2 -211.42
5000.5 -211.42
5019.9 -211.42
5039.3 -211.42
5058.9 -211.42
5078.5 -211.42
5098.1 -211.54
5117.9 -211.54
5137.7 -211.54
5157.6 -211.46
5177.6 -211.46
5197.7 -211.46
5217.8 -211.46
5238 -211.46
5258.3 -211.46
5278.7 -211.46
5299.1 -211.46
5319.7 -211.46
5340.3 -211.46
5360.9 -211.46
5381.7 -211.46
5402.6 -211.46
5423.5 -211.46
5444.5 -211.46
5465.6 -211.46
5486.8 -211.46
5508 -211.46
5529.4 -211.46
5550.8 -211.46
5572.3 -211.59
5593.9 -211.59
5615.6 -211.59
5637.3 -211.59
5659.2 -211.59
5681.1 -211.59
5703.1 -211.59
5725.2 -211.59
5747.4 -211.59
5769.6 -211.5
5792 -211.5
5814.4 -211.5
5836.9 -211.59
5859.6 -211.59
5882.3 -211.59
5905 -211.5
5927.9 -211.5
5950.9 -211.5
5973.9 -211.5
5997.1 -211.5
6020.3 -211.5
6043.6 -211.5
6067.1 -211.5
6090.6 -211.54
6114.2 -211.54
6137.8 -211.63
6161.6 -211.63
6185.5 -211.63
6209.5 -211.63
6233.5 -211.54
6257.7 -211.54
6281.9 -211.54
6306.2 -211.63
6330.7 -211.63
6355.2 -211.63
6379.8 -211.67
6404.5 -211.67
6429.3 -211.59
6454.3 -211.59
6479.3 -211.59
6504.4 -211.67
6529.6 -211.71
6554.9 -211.71
6580.3 -211.63
6605.7 -211.63
6631.3 -211.63
6657 -211.71
6682.8 -211.71
6708.7 -211.75
6734.7 -211.75
6760.8 -211.67
6787 -211.67
6813.3 -211.67
6839.7 -211.71
6866.2 -211.71
6892.8 -211.71
6919.5 -211.71
6946.3 -211.71
6973.2 -211.71
7000.2 -211.75
7027.3 -211.79
7054.5 -211.83
7081.9 -211.83
7109.3 -211.83
7136.9 -211.83
7164.5 -211.88
7192.3 -211.88
7220.1 -211.88
7248.1 -211.79
7276.2 -211.79
7304.4 -211.79
7332.7 -211.79
7361.1 -211.79
7389.6 -211.92
7418.2 -211.92
7447 -211.83
7475.8 -211.83
7504.8 -211.83
7533.8 -211.83
7563 -211.83
7592.3 -211.83
7621.7 -211.96
7651.3 -211.96
7680.9 -211.96
7710.7 -211.96
7740.5 -211.88
7770.5 -211.88
7800.6 -211.88
7830.9 -211.88
7861.2 -211.92
7891.6 -211.92
7922.2 -211.92
7952.9 -211.92
7983.7 -211.92
8014.7 -211.92
8045.7 -211.92
8076.9 -211.96
8108.2 -211.96
8139.6 -211.96
8171.1 -211.96
8202.8 -211.96
8234.5 -211.96
8266.4 -211.96
8298.5 -211.96
8330.6 -212.08
8362.9 -212.08
8395.3 -212.08
8427.8 -212
8460.5 -212
8493.2 -212
8526.1 -212
8559.2 -212.04
8592.3 -212.13
8625.6 -212.13
8659 -212.04
8692.6 -212.04
8726.3 -212.04
8760.1 -212.17
8794 -212.17
8828.1 -212.17
8862.3 -212.17
8896.6 -212.17
8931.1 -212.17
8965.7 -212.17
9000.4 -212.17
9035.3 -212.13
9070.3 -212.13
9105.4 -212.13
9140.7 -212.13
9176.1 -212.13
9211.7 -212.21
9247.4 -212.21
9283.2 -212.25
9319.1 -212.25
9355.2 -212.25
9391.5 -212.25
9427.9 -212.25
9464.4 -212.25
9501.1 -212.25
9537.9 -212.29
9574.8 -212.29
9611.9 -212.29
9649.2 -212.29
9686.5 -212.29
9724.1 -212.29
9761.7 -212.25
9799.6 -212.25
9837.5 -212.25
9875.6 -212.33
9913.9 -212.33
9952.3 -212.33
9990.9 -212.33
10030 -212.25
10068 -212.25
10107 -212.25
10147 -212.25
10186 -212.25
10225 -212.29
10265 -212.29
10305 -212.29
10345 -212.29
10385 -212.29
10425 -212.29
10465 -212.29
10506 -212.29
10547 -212.29
10587 -212.29
10628 -212.38
10670 -212.38
10711 -212.38
10752 -212.29
10794 -212.29
10836 -212.29
10878 -212.29
10920 -212.29
10962 -212.29
11005 -212.29
11047 -212.29
11090 -212.29
11133 -212.29
11176 -212.29
11220 -212.29
11263 -212.29
11307 -212.29
11351 -212.29
11395 -212.29
11439 -212.42
11483 -212.42
11528 -212.42
11572 -212.33
11617 -212.33
11662 -212.33
11707 -212.33
11753 -212.33
11798 -212.33
11844 -212.33
11890 -212.33
11936 -212.33
11982 -212.33
12028 -212.33
12075 -212.33
12122 -212.33
12169 -212.33
12216 -212.46
12263 -212.46
12311 -212.46
12358 -212.46
12406 -212.46
12454 -212.46
12503 -212.46
12551 -212.46
12600 -212.46
12648 -212.46
12697 -212.46
12747 -212.46
12796 -212.38
12846 -212.38
12895 -212.5
12945 -212.5
12995 -212.5
13046 -212.5
13096 -212.5
13147 -212.5
13198 -212.5
13249 -212.38
13300 -212.38
13352 -212.5
13404 -212.5
13456 -212.5
13508 -212.42
13560 -212.42
13613 -212.42
13665 -212.42
13718 -212.42
13772 -212.42
13825 -212.42
13878 -212.42
13932 -212.42
13986 -212.42
14040 -212.42
14095 -212.42
14149 -212.42
14204 -212.42
14259 -212.54
14314 -212.54
14370 -212.54
14426 -212.54
14481 -212.46
14538 -212.46
14594 -212.46
14650 -212.46
14707 -212.46
14764 -212.46
14821 -212.58
14879 -212.58
14936 -212.58
14994 -212.58
15052 -212.58
15111 -212.58
15169 -212.58
15228 -212.58
15287 -212.5
15346 -212.5
15406 -212.5
15465 -212.5
15525 -212.5
15585 -212.5
15646 -212.5
15706 -212.62
15767 -212.62
15828 -212.62
15890 -212.62
15951 -212.62
16013 -212.62
16075 -212.5
16137 -212.5
16200 -212.5
16263 -212.5
16326 -212.5
16389 -212.5
16452 -212.5
16516 -212.5
16580 -212.5
16644 -212.5
16709 -212.5
16773 -212.58
16838 -212.58
16904 -212.46
16969 -212.46
17035 -212.46
17101 -212.46
17167 -212.46
17234 -212.46
17300 -212.46
17367 -212.46
17435 -212.46
17502 -212.46
17570 -212.54
17638 -212.54
17707 -212.54
17775 -212.54
17844 -212.54
17913 -212.54
17983 -212.54
18052 -212.54
18122 -212.42
18192 -212.42
18263 -212.42
18334 -212.42
18405 -212.5
18476 -212.5
18547 -212.5
18619 -212.5
18691 -212.5
18764 -212.5
18837 -212.5
18910 -212.5
18983 -212.5
19056 -212.5
19130 -212.5
19204 -212.5
19279 -212.5
19353 -212.5
19428 -212.5
19504 -212.5
19579 -212.38
19655 -212.38
19731 -212.33
19808 -212.33
19884 -212.33
19961 -212.42
20039 -212.42
20116 -212.42
20194 -212.33
20273 -212.33
20351 -212.33
20430 -212.29
20509 -212.29
20588 -212.29
20668 -212.29
20748 -212.29
20829 -212.25
20909 -212.25
20990 -212.25
21072 -212.25
21153 -212.25
21235 -212.25
21318 -212.25
21400 -212.25
21483 -212.21
21566 -212.13
21650 -212.13
21734 -212.13
21818 -212.13
21902 -212.13
21987 -212.08
22072 -212.08
22158 -212.08
22244 -212.13
22330 -212.13
22417 -212.13
22503 -212.13
22591 -212.08
22678 -212
22766 -212
22854 -212
22943 -212
23032 -211.96
23121 -211.96
23210 -211.96
23300 -211.96
23391 -211.92
23481 -211.92
23572 -211.92
23663 -211.96
23755 -211.96
23847 -211.92
23940 -211.92
24032 -211.92
24125 -211.92
24219 -211.92
24313 -211.92
24407 -211.92
24501 -211.88
24596 -211.88
24692 -211.88
24787 -211.79
24883 -211.79
24980 -211.79
25076 -211.79
25174 -211.79
25271 -211.79
25369 -211.79
25467 -211.79
25566 -211.79
25665 -211.79
25764 -211.79
25864 -211.79
25965 -211.79
26065 -211.79
26166 -211.79
26267 -211.79
26369 -211.79
26471 -211.79
26574 -211.79
26677 -211.79
26780 -211.79
26884 -211.79
26988 -211.79
27093 -211.83
27198 -211.83
27303 -211.83
27409 -211.79
27515 -211.79
27622 -211.79
27729 -211.79
27836 -211.88
27944 -211.88
28052 -211.88
28161 -211.88
28270 -211.88
28379 -211.88
28489 -211.88
28600 -211.88
28711 -211.92
28822 -211.92
28933 -211.92
29045 -211.83
29158 -211.83
29271 -211.92
29384 -211.92
29498 -211.92
29612 -211.92
29727 -211.92
29842 -211.92
29958 -211.92
30074 -211.92
30191 -211.83
30308 -211.83
30425 -211.83
30543 -211.92
30661 -211.92
30780 -211.83
30899 -211.83
31019 -211.83
31139 -211.83
31260 -211.96
31381 -211.96
31502 -211.92
31624 -211.92
31747 -211.92
31870 -211.96
31993 -212
32117 -212
32242 -212
32367 -212.13
32492 -212.17
32618 -212.17
32744 -212.17
32871 -212.17
32999 -212.25
33126 -212.25
33255 -212.25
33384 -212.25
33513 -212.25
33643 -212.29
33773 -212.29
33904 -212.29
34035 -212.33
34167 -212.46
34299 -212.46
34432 -212.42
34566 -212.42
34700 -212.46
34834 -212.54
34969 -212.54
35104 -212.5
35240 -212.5
35377 -212.62
35514 -212.62
35652 -212.62
35790 -212.62
35928 -212.67
36068 -212.67
36207 -212.67
36348 -212.67
36488 -212.67
36630 -212.67
36772 -212.71
36914 -212.71
37057 -212.71
37201 -212.71
37345 -212.71
37490 -212.71
37635 -212.71
37781 -212.75
37927 -212.75
38074 -212.75
38221 -212.75
38369 -212.75
38518 -212.75
38667 -212.75
38817 -212.79
38967 -212.79
39118 -212.79
39270 -212.79
39422 -212.79
39575 -212.83
39728 -212.83
39882 -212.83
40037 -212.83
40192 -212.87
40347 -212.87
40504 -212.92
40661 -212.92
40818 -212.92
40976 -212.92
41135 -212.96
41294 -213.08
41454 -213.08
41615 -213.12
41776 -213.12
41938 -213.08
42101 -213.08
42264 -213.12
42427 -213.12
42592 -213.17
42757 -213.21
42922 -213.29
43089 -213.33
43256 -213.33
43423 -213.29
43591 -213.29
43760 -213.41
43930 -213.41
44100 -213.41
44271 -213.41
44442 -213.41
44615 -213.5
44787 -213.54
44961 -213.5
45135 -213.58
45310 -213.62
45486 -213.62
45662 -213.54
45839 -213.54
46016 -213.58
46194 -213.66
46373 -213.66
46553 -213.66
46733 -213.66
46914 -213.75
47096 -213.75
47279 -213.71
47462 -213.71
47646 -213.79
47830 -213.79
48016 -213.79
48202 -213.79
48388 -213.79
48576 -213.79
48764 -213.91
48953 -213.91
49143 -213.91
49333 -213.96
49524 -213.96
49716 -213.91
49909 -213.91
50102 -213.96
50296 -214.08
50491 -214.08
50686 -214.08
50883 -214.16
51080 -214.16
51278 -214.2
51477 -214.25
51676 -214.29
51876 -214.29
52077 -214.33
52279 -214.33
52481 -214.37
52685 -214.37
52889 -214.45
53094 -214.5
53299 -214.5
53506 -214.5
53713 -214.54
53921 -214.58
54130 -214.58
54340 -214.54
54550 -214.54
54762 -214.58
54974 -214.62
55187 -214.62
55401 -214.62
55615 -214.62
55831 -214.62
56047 -214.62
56264 -214.62
56482 -214.66
56701 -214.66
56921 -214.66
57141 -214.54
57363 -214.54
57585 -214.5
57808 -214.5
58032 -214.5
58257 -214.45
58482 -214.45
58709 -214.45
58936 -214.41
59165 -214.41
59394 -214.41
59624 -214.37
59855 -214.33
60087 -214.33
60320 -214.37
60553 -214.37
60788 -214.33
61023 -214.29
61260 -214.29
61497 -214.29
61735 -214.29
61975 -214.25
62215 -214.25
62456 -214.12
62698 -214.12
62941 -214.12
63184 -214.12
63429 -214.25
63675 -214.25
63922 -214.25
64169 -214.25
64418 -214.29
64667 -214.29
64918 -214.16
65169 -214.16
65422 -214.16
65675 -214.16
65930 -214.16
66185 -214.16
66442 -214.29
66699 -214.29
66957 -214.29
67217 -214.29
67477 -214.29
67739 -214.33
68001 -214.33
68265 -214.33
68529 -214.33
68795 -214.33
69061 -214.33
69329 -214.33
69597 -214.33
69867 -214.33
70137 -214.33
70409 -214.33
70682 -214.33
70956 -214.33
71231 -214.33
71507 -214.29
71784 -214.29
72062 -214.25
72341 -214.25
72621 -214.25
72903 -214.25
73185 -214.12
73469 -214.12
73753 -214.2
74039 -214.2
74326 -214.2
74614 -214.16
74903 -214.16
75193 -214.16
75484 -214.04
75777 -214.04
76070 -214.04
76365 -214
76661 -214
76958 -214
77256 -214
77555 -213.96
77856 -213.96
78157 -213.96
78460 -213.96
78764 -213.96
79069 -214
79376 -214
79683 -213.87
79992 -213.83
80302 -213.83
80613 -213.87
80925 -213.87
81239 -213.75
81553 -213.75
81869 -213.79
82186 -213.79
82505 -213.71
82824 -213.66
83145 -213.58
83467 -213.58
83791 -213.54
84115 -213.54
84441 -213.58
84768 -213.58
85097 -213.54
85426 -213.46
85757 -213.41
86090 -213.37
86423 -213.37
86758 -213.33
87094 -213.33
87432 -213.29
87770 -213.29
88110 -213.25
88452 -213.25
88794 -213.21
89138 -213.17
89484 -213.17
89830 -213.17
90178 -213.04
90528 -213
90878 -213
91230 -212.96
91584 -212.96
91939 -212.92
92295 -212.83
92652 -212.79
93011 -212.75
93372 -212.67
93733 -212.54
94097 -212.54
94461 -212.46
94827 -212.42
95195 -212.42
95563 -212.33
95934 -212.33
96305 -212.33
96678 -212.33
97053 -212.13
97429 -212.08
97806 -212.04
98185 -212
98566 -212
98947 -211.96
99331 -211.96
99716 -211.88
1.001e+05 -211.88
1.0049e+05 -211.83
1.0088e+05 -211.75
1.0127e+05 -211.71
1.0166e+05 -211.71
1.0206e+05 -211.67
1.0245e+05 -211.63
1.0285e+05 -211.59
1.0325e+05 -211.59
1.0365e+05 -211.5
1.0405e+05 -211.46
1.0445e+05 -211.42
1.0486e+05 -211.42
1.0526e+05 -211.42
1.0567e+05 -211.42
1.0608e+05 -211.29
1.0649e+05 -211.29
1.069e+05 -211.21
1.0732e+05 -211.17
1.0773e+05 -211.17
1.0815e+05 -211.13
1.0857e+05 -211.09
1.0899e+05 -211.09
1.0941e+05 -211
1.0984e+05 -210.96
1.1026e+05 -210.96
1.1069e+05 -210.92
1.1112e+05 -210.92
1.1155e+05 -210.92
1.1198e+05 -210.92
1.1241e+05 -211.04
1.1285e+05 -211.04
1.1329e+05 -211.04
1.1373e+05 -211.09
1.1417e+05 -211.13
1.1461e+05 -211.13
1.1505e+05 -211.13
1.155e+05 -211.13
1.1595e+05 -211.13
1.1639e+05 -211.13
1.1685e+05 -211.25
1.173e+05 -211.25
1.1775e+05 -211.25
1.1821e+05 -211.25
1.1867e+05 -211.25
1.1913e+05 -211.25
1.1959e+05 -211.29
1.2005e+05 -211.38
1.2052e+05 -211.42
1.2098e+05 -211.42
1.2145e+05 -211.42
1.2192e+05 -211.42
1.224e+05 -211.42
1.2287e+05 -211.5
1.2335e+05 -211.46
1.2382e+05 -211.46
1.243e+05 -211.46
1.2478e+05 -211.5
1.2527e+05 -211.75
1.2575e+05 -211.88
1.2624e+05 -211.96
1.2673e+05 -211.96
1.2722e+05 -211.96
1.2771e+05 -211.96
1.2821e+05 -212.13
1.287e+05 -212.29
1.292e+05 -212.33
1.297e+05 -212.42
1.3021e+05 -212.42
1.3071e+05 -212.46
1.3122e+05 -212.83
1.3173e+05 -212.83
1.3224e+05 -213
1.3275e+05 -213
1.3326e+05 -213.17
1.3378e+05 -213.17
1.343e+05 -213.29
1.3482e+05 -213.29
1.3534e+05 -213.37
1.3586e+05 -213.41
1.3639e+05 -213.5
1.3692e+05 -213.5
1.3745e+05 -213.58
1.3798e+05 -213.91
1.3852e+05 -213.96
1.3905e+05 -214.12
1.3959e+05 -214.2
1.4013e+05 -214.29
1.4068e+05 -214.37
1.4122e+05 -214.37
1.4177e+05 -214.5
1.4232e+05 -214.54
1.4287e+05 -214.7
1.4342e+05 -214.79
1.4398e+05 -214.95
1.4453e+05 -215.12
1.4509e+05 -215.16
1.4566e+05 -215.29
1.4622e+05 -215.41
1.4679e+05 -215.54
1.4736e+05 -215.62
1.4793e+05 -215.7
1.485e+05 -215.7
1.4908e+05 -215.83
1.4965e+05 -215.91
1.5023e+05 -216.03
1.5081e+05 -216.03
1.514e+05 -216.28
1.5199e+05 -216.41
1.5257e+05 -216.45
1.5317e+05 -216.62
1.5376e+05 -216.74
1.5435e+05 -216.87
1.5495e+05 -216.95
1.5555e+05 -216.95
1.5616e+05 -217.07
1.5676e+05 -217.07
1.5737e+05 -217.36
1.5798e+05 -217.41
1.5859e+05 -217.53
1.592e+05 -217.66
1.5982e+05 -217.78
1.6044e+05 -218.24
1.6106e+05 -218.4
1.6169e+05 -218.61
1.6231e+05 -218.69
1.6294e+05 -218.99
1.6357e+05 -219.28
1.6421e+05 -219.28
1.6484e+05 -219.4
1.6548e+05 -219.82
1.6612e+05 -219.82
1.6676e+05 -219.98
1.6741e+05 -220.32
1.6806e+05 -220.32
1.6871e+05 -220.82
1.6936e+05 -220.82
1.7002e+05 -220.9
1.7068e+05 -221.36
1.7134e+05 -221.61
1.72e+05 -221.61
1.7267e+05 -221.69
1.7334e+05 -221.69
1.7401e+05 -221.94
1.7469e+05 -222.35
1.7536e+05 -222.52
1.7604e+05 -222.94
1.7672e+05 -223.14
1.7741e+05 -223.31
1.781e+05 -223.48
1.7879e+05 -223.81
1.7948e+05 -223.81
1.8017e+05 -223.77
1.8087e+05 -223.56
1.8157e+05 -223.39
1.8228e+05 -223.27
1.8298e+05 -223.06
1.8369e+05 -222.94
1.844e+05 -222.85
1.8512e+05 -222.77
1.8583e+05 -222.6
1.8655e+05 -222.48
1.8728e+05 -222.4
1.88e+05 -222.4
1.8873e+05 -222.27
1.8946e+05 -222.02
1.902e+05 -221.98
1.9093e+05 -221.85
1.9167e+05 -221.65
1.9241e+05 -221.65
1.9316e+05 -221.52
1.9391e+05 -221.31
1.9466e+05 -221.23
1.9541e+05 -221.15
1.9617e+05 -220.98
1.9693e+05 -220.86
1.9769e+05 -220.73
1.9846e+05 -220.65
